* REW测量的测量数据V5.20.7
* 来源: ASIO hdspfire, Analog 1 (1)
* 格式: 256k Log Swept Sine, 1 sweep at 0.0 dBFS with no timing reference
* 日期: 2022-10-14 11:11:53
* REW 设置:
* C计权补偿: 关
*  目标电平: 75.0 dB
* 注释: 
* 测量: 十月 14
* 平滑: 1/24 倍频程
* 频率步进: 96 ppo
* 起始频率: 0.36621094 Hz
*
* 频率(Hz) SPL(dB) 相位(角度)
0.366211 57.240 -134.0097
0.368865 57.259 -134.0837
0.371538 57.287 -134.1918
0.374230 57.319 -134.3159
0.376942 57.352 -134.4479
0.379673 57.386 -134.5849
0.382424 57.420 -134.7260
0.385196 57.454 -134.8710
0.387987 57.489 -135.0198
0.390798 57.523 -135.1725
0.393630 57.558 -135.3291
0.396483 57.594 -135.4896
0.399356 57.629 -135.6541
0.402250 57.665 -135.8227
0.405165 57.701 -135.9953
0.408101 57.738 -136.1721
0.411058 57.774 -136.3531
0.414037 57.811 -136.5382
0.417037 57.848 -136.7277
0.420059 57.886 -136.9214
0.423103 57.923 -137.1195
0.426169 57.961 -137.3221
0.429257 58.000 -137.5290
0.432367 58.038 -137.7404
0.435501 58.077 -137.9564
0.438656 58.116 -138.1770
0.441835 58.155 -138.4022
0.445037 58.195 -138.6321
0.448262 58.235 -138.8667
0.451510 58.275 -139.1060
0.454782 58.316 -139.3502
0.458077 58.357 -139.5992
0.461397 58.398 -139.8531
0.464740 58.439 -140.1119
0.468108 58.481 -140.3757
0.471500 58.523 -140.6445
0.474917 58.565 -140.9184
0.478358 58.608 -141.1974
0.481825 58.651 -141.4815
0.485316 58.694 -141.7708
0.488833 58.737 -142.0653
0.492375 58.781 -142.3651
0.495943 58.825 -142.6702
0.499537 58.870 -142.9806
0.503157 58.915 -143.2964
0.506803 58.960 -143.6176
0.510475 59.005 -143.9442
0.514174 59.051 -144.2763
0.517900 59.097 -144.6139
0.521653 59.144 -144.9571
0.525433 59.191 -145.3058
0.529241 59.238 -145.6601
0.533076 59.285 -146.0201
0.536939 59.333 -146.3857
0.540830 59.381 -146.7569
0.544749 59.430 -147.1339
0.548696 59.479 -147.5166
0.552673 59.528 -147.9051
0.556677 59.578 -148.2994
0.560711 59.628 -148.6994
0.564774 59.678 -149.1052
0.568867 59.729 -149.5169
0.572989 59.780 -149.9344
0.577141 59.831 -150.3577
0.581324 59.883 -150.7869
0.585536 59.935 -151.2220
0.589779 59.987 -151.6629
0.594053 60.040 -152.1097
0.598358 60.094 -152.5624
0.602694 60.147 -153.0209
0.607061 60.201 -153.4854
0.611460 60.256 -153.9557
0.615891 60.311 -154.4318
0.620354 60.366 -154.9138
0.624849 60.422 -155.4016
0.629377 60.478 -155.8952
0.633938 60.534 -156.3947
0.638532 60.591 -156.8999
0.643159 60.649 -157.4108
0.647819 60.706 -157.9275
0.652514 60.764 -158.4498
0.657242 60.823 -158.9778
0.662005 60.882 -159.5113
0.666802 60.941 -160.0504
0.671634 61.001 -160.5951
0.676501 61.061 -161.1452
0.681403 61.122 -161.7007
0.686341 61.183 -162.2615
0.691314 61.245 -162.8276
0.696324 61.307 -163.3989
0.701369 61.369 -163.9754
0.706452 61.432 -164.5569
0.711571 61.496 -165.1433
0.716727 61.559 -165.7347
0.721921 61.623 -166.3311
0.727153 61.687 -166.9329
0.732422 61.749 -167.5412
0.737729 61.809 -168.1580
0.743075 61.867 -168.7853
0.748460 61.924 -169.4244
0.753883 61.981 -170.0757
0.759346 62.037 -170.7393
0.764849 62.093 -171.4152
0.770391 62.148 -172.1036
0.775974 62.203 -172.8043
0.781597 62.258 -173.5173
0.787261 62.313 -174.2425
0.792965 62.367 -174.9800
0.798712 62.421 -175.7296
0.804499 62.475 -176.4914
0.810329 62.528 -177.2652
0.816201 62.582 -178.0508
0.822116 62.635 -178.8484
0.828073 62.689 -179.6577
0.834073 62.742 179.5214
0.840118 62.795 178.6889
0.846205 62.848 177.8451
0.852337 62.902 176.9900
0.858514 62.955 176.1238
0.864735 63.008 175.2466
0.871001 63.062 174.3588
0.877313 63.116 173.4603
0.883670 63.170 172.5515
0.890074 63.224 171.6324
0.896523 63.279 170.7035
0.903020 63.334 169.7648
0.909564 63.389 168.8167
0.916155 63.445 167.8594
0.922793 63.502 166.8932
0.929480 63.559 165.9184
0.936216 63.617 164.9353
0.943000 63.675 163.9442
0.949833 63.734 162.9455
0.956716 63.795 161.9395
0.963649 63.856 160.9267
0.970632 63.918 159.9073
0.977666 63.981 158.8820
0.984750 64.045 157.8510
0.991886 64.111 156.8148
0.999074 64.178 155.7740
1.006313 64.246 154.7290
1.013605 64.316 153.6803
1.020950 64.388 152.6285
1.028349 64.461 151.5742
1.035801 64.536 150.5180
1.043306 64.613 149.4604
1.050867 64.692 148.4022
1.058482 64.773 147.3439
1.066152 64.857 146.2864
1.073878 64.943 145.2301
1.081659 65.031 144.1756
1.089498 65.122 143.1229
1.097393 65.215 142.0707
1.105345 65.312 141.0160
1.113355 65.410 139.9550
1.121422 65.512 138.8856
1.129549 65.615 137.8070
1.137734 65.722 136.7192
1.145978 65.830 135.6223
1.154283 65.941 134.5164
1.162647 66.054 133.4019
1.171072 66.169 132.2792
1.179558 66.287 131.1485
1.188106 66.407 130.0102
1.196715 66.529 128.8647
1.205387 66.654 127.7122
1.214122 66.780 126.5533
1.222920 66.908 125.3884
1.231781 67.039 124.2178
1.240708 67.171 123.0421
1.249698 67.305 121.8617
1.258754 67.441 120.6771
1.267875 67.579 119.4888
1.277063 67.718 118.2973
1.286317 67.859 117.1033
1.295638 68.002 115.9073
1.305027 68.146 114.7100
1.314484 68.291 113.5120
1.324009 68.438 112.3138
1.333603 68.586 111.1164
1.343267 68.735 109.9202
1.353001 68.885 108.7261
1.362805 69.036 107.5349
1.372681 69.187 106.3474
1.382628 69.340 105.1644
1.392647 69.493 103.9868
1.402739 69.646 102.8155
1.412904 69.799 101.6513
1.423142 69.953 100.4953
1.433455 70.107 99.3484
1.443842 70.260 98.2117
1.454305 70.414 97.0858
1.464843 70.567 95.9712
1.475458 70.722 94.8676
1.486150 70.878 93.7745
1.496919 71.035 92.6913
1.507766 71.193 91.6178
1.518692 71.354 90.5537
1.529697 71.516 89.4988
1.540782 71.679 88.4529
1.551947 71.844 87.4158
1.563193 72.010 86.3871
1.574521 72.177 85.3666
1.585931 72.346 84.3541
1.597423 72.515 83.3492
1.608998 72.686 82.3515
1.620658 72.858 81.3608
1.632402 73.030 80.3766
1.644231 73.204 79.3985
1.656146 73.378 78.4262
1.668147 73.552 77.4592
1.680235 73.727 76.4969
1.692410 73.902 75.5390
1.704674 74.078 74.5849
1.717027 74.254 73.6339
1.729469 74.429 72.6857
1.742002 74.605 71.7394
1.754625 74.780 70.7946
1.767340 74.955 69.8506
1.780147 75.129 68.9065
1.793046 75.303 67.9619
1.806040 75.476 67.0163
1.819127 75.647 66.0699
1.832309 75.818 65.1240
1.845587 75.989 64.1819
1.858961 76.158 63.2466
1.872431 76.328 62.3195
1.886000 76.497 61.4012
1.899666 76.666 60.4914
1.913432 76.835 59.5898
1.927298 77.003 58.6962
1.941264 77.171 57.8101
1.955331 77.338 56.9309
1.969500 77.506 56.0583
1.983772 77.672 55.1918
1.998147 77.839 54.3307
2.012626 78.005 53.4745
2.027211 78.171 52.6226
2.041901 78.337 51.7745
2.056697 78.502 50.9294
2.071601 78.666 50.0866
2.086613 78.831 49.2455
2.101733 78.995 48.4052
2.116963 79.158 47.5651
2.132303 79.322 46.7242
2.147755 79.484 45.8818
2.163318 79.647 45.0371
2.178995 79.809 44.1899
2.194785 79.970 43.3406
2.210689 80.131 42.4914
2.226709 80.291 41.6447
2.242844 80.450 40.8021
2.259097 80.608 39.9639
2.275467 80.765 39.1303
2.291956 80.921 38.3010
2.308565 81.077 37.4756
2.325294 81.231 36.6541
2.342144 81.385 35.8358
2.359116 81.538 35.0206
2.376211 81.690 34.2080
2.393430 81.841 33.3977
2.410774 81.992 32.5893
2.428243 82.142 31.7822
2.445839 82.291 30.9761
2.463562 82.440 30.1704
2.481415 82.588 29.3647
2.499396 82.736 28.5584
2.517508 82.884 27.7512
2.535750 83.030 26.9426
2.554126 83.177 26.1328
2.572634 83.323 25.3224
2.591276 83.467 24.5129
2.610054 83.611 23.7056
2.628967 83.754 22.9005
2.648018 83.895 22.0980
2.667206 84.036 21.2979
2.686534 84.175 20.4999
2.706002 84.313 19.7039
2.725610 84.451 18.9098
2.745361 84.587 18.1172
2.765255 84.723 17.3258
2.785294 84.858 16.5356
2.805477 84.992 15.7462
2.825807 85.125 14.9573
2.846284 85.257 14.1686
2.866909 85.389 13.3798
2.887684 85.521 12.5908
2.908609 85.652 11.8014
2.929686 85.782 11.0119
2.950916 85.911 10.2229
2.972299 86.040 9.4353
2.993838 86.167 8.6495
3.015532 86.293 7.8656
3.037384 86.417 7.0836
3.059394 86.541 6.3032
3.081564 86.664 5.5245
3.103894 86.785 4.7474
3.126386 86.906 3.9717
3.149041 87.025 3.1971
3.171861 87.144 2.4236
3.194845 87.262 1.6509
3.217996 87.380 0.8790
3.241315 87.497 0.1075
3.264803 87.613 -0.6633
3.288461 87.728 -1.4336
3.312291 87.843 -2.2029
3.336293 87.957 -2.9705
3.360469 88.069 -3.7360
3.384820 88.181 -4.4995
3.409348 88.291 -5.2609
3.434054 88.400 -6.0203
3.458938 88.508 -6.7776
3.484003 88.615 -7.5333
3.509250 88.722 -8.2872
3.534679 88.827 -9.0397
3.560293 88.932 -9.7908
3.586092 89.036 -10.5405
3.612079 89.140 -11.2892
3.638253 89.243 -12.0367
3.664618 89.345 -12.7830
3.691173 89.446 -13.5272
3.717921 89.547 -14.2690
3.744862 89.646 -15.0083
3.771999 89.745 -15.7449
3.799332 89.842 -16.4790
3.826864 89.939 -17.2108
3.854595 90.034 -17.9404
3.882527 90.129 -18.6682
3.910661 90.223 -19.3942
3.938999 90.317 -20.1186
3.967543 90.410 -20.8417
3.996294 90.503 -21.5635
4.025252 90.595 -22.2839
4.054421 90.687 -23.0023
4.083801 90.778 -23.7180
4.113394 90.868 -24.4309
4.143201 90.957 -25.1410
4.173225 91.045 -25.8486
4.203466 91.132 -26.5538
4.233926 91.219 -27.2571
4.264606 91.306 -27.9587
4.295509 91.392 -28.6591
4.326636 91.477 -29.3583
4.357989 91.562 -30.0566
4.389569 91.647 -30.7540
4.421378 91.731 -31.4500
4.453417 91.815 -32.1438
4.485688 91.898 -32.8353
4.518193 91.980 -33.5245
4.550934 92.062 -34.2117
4.583912 92.143 -34.8972
4.617129 92.224 -35.5815
4.650587 92.305 -36.2651
4.684287 92.385 -36.9482
4.718231 92.464 -37.6313
4.752421 92.544 -38.3145
4.786859 92.623 -38.9971
4.821547 92.701 -39.6786
4.856485 92.779 -40.3589
4.891677 92.857 -41.0380
4.927125 92.934 -41.7162
4.962829 93.011 -42.3936
4.998791 93.087 -43.0708
5.035015 93.163 -43.7481
5.071500 93.238 -44.4258
5.108251 93.313 -45.1040
5.145267 93.388 -45.7827
5.182552 93.462 -46.4615
5.220107 93.535 -47.1401
5.257934 93.609 -47.8185
5.296035 93.681 -48.4966
5.334412 93.753 -49.1747
5.373067 93.825 -49.8527
5.412003 93.896 -50.5309
5.451221 93.967 -51.2094
5.490722 94.037 -51.8882
5.530510 94.107 -52.5673
5.570587 94.176 -53.2463
5.610953 94.245 -53.9253
5.651613 94.313 -54.6040
5.692567 94.380 -55.2825
5.733818 94.447 -55.9604
5.775367 94.514 -56.6377
5.817218 94.580 -57.3143
5.859372 94.645 -57.9901
5.901831 94.710 -58.6650
5.944598 94.774 -59.3392
5.987675 94.838 -60.0122
6.031065 94.901 -60.6841
6.074768 94.964 -61.3547
6.118788 95.026 -62.0238
6.163127 95.088 -62.6912
6.207788 95.149 -63.3568
6.252772 95.211 -64.0203
6.298082 95.271 -64.6816
6.343721 95.332 -65.3406
6.389690 95.392 -65.9974
6.435992 95.451 -66.6522
6.482630 95.511 -67.3052
6.529606 95.570 -67.9564
6.576922 95.629 -68.6057
6.624581 95.688 -69.2529
6.672585 95.747 -69.8975
6.720938 95.806 -70.5397
6.769640 95.865 -71.1800
6.818696 95.924 -71.8189
6.868107 95.983 -72.4573
6.917876 96.042 -73.0955
6.968006 96.101 -73.7337
7.018499 96.160 -74.3713
7.069358 96.220 -75.0083
7.120586 96.280 -75.6450
7.172184 96.339 -76.2821
7.224157 96.399 -76.9208
7.276506 96.458 -77.5618
7.329235 96.518 -78.2055
7.382345 96.578 -78.8518
7.435841 96.637 -79.5005
7.489724 96.697 -80.1516
7.543997 96.756 -80.8054
7.598664 96.815 -81.4625
7.653728 96.874 -82.1235
7.709189 96.932 -82.7886
7.765053 96.989 -83.4581
7.821322 97.045 -84.1316
7.877998 97.101 -84.8084
7.935086 97.156 -85.4879
7.992587 97.210 -86.1695
8.050504 97.262 -86.8529
8.108841 97.313 -87.5385
8.167601 97.363 -88.2262
8.226787 97.411 -88.9152
8.286402 97.458 -89.6033
8.346449 97.503 -90.2888
8.406931 97.546 -90.9703
8.467851 97.588 -91.6474
8.529212 97.627 -92.3206
8.591018 97.665 -92.9886
8.653272 97.701 -93.6494
8.715977 97.735 -94.3005
8.779137 97.768 -94.9399
8.842754 97.799 -95.5671
8.906833 97.829 -96.1819
8.971375 97.857 -96.7839
9.036386 97.885 -97.3717
9.101867 97.911 -97.9441
9.167823 97.938 -98.4996
9.234257 97.964 -99.0376
9.301172 97.989 -99.5582
9.368572 98.015 -100.0626
9.436460 98.041 -100.5520
9.504841 98.068 -101.0267
9.573717 98.097 -101.4867
9.643092 98.126 -101.9315
9.712970 98.157 -102.3633
9.783354 98.189 -102.7855
9.854248 98.224 -103.2014
9.925656 98.260 -103.6124
9.997581 98.298 -104.0183
10.070028 98.338 -104.4205
10.143000 98.380 -104.8230
10.216500 98.423 -105.2296
10.290533 98.468 -105.6425
10.365103 98.515 -106.0618
10.440212 98.562 -106.4882
10.515866 98.611 -106.9235
10.592069 98.660 -107.3696
10.668823 98.709 -107.8278
10.746134 98.758 -108.2982
10.824005 98.806 -108.7802
10.902440 98.854 -109.2726
10.981443 98.901 -109.7753
11.061020 98.947 -110.2881
11.141172 98.991 -110.8104
11.221906 99.034 -111.3407
11.303225 99.075 -111.8766
11.385133 99.114 -112.4166
11.467634 99.151 -112.9604
11.550734 99.186 -113.5074
11.634435 99.220 -114.0558
11.718742 99.252 -114.6040
11.803661 99.282 -115.1514
11.889195 99.311 -115.6979
11.975349 99.338 -116.2436
12.062128 99.363 -116.7880
12.149535 99.388 -117.3311
12.237576 99.411 -117.8728
12.326254 99.434 -118.4136
12.415575 99.454 -118.9537
12.505544 99.474 -119.4936
12.596164 99.493 -120.0331
12.687441 99.510 -120.5718
12.779379 99.526 -121.1091
12.871984 99.541 -121.6449
12.965260 99.554 -122.1786
13.059211 99.566 -122.7088
13.153843 99.577 -123.2336
13.249161 99.586 -123.7519
13.345170 99.595 -124.2629
13.441875 99.602 -124.7654
13.539280 99.610 -125.2582
13.637391 99.617 -125.7404
13.736214 99.625 -126.2123
13.835752 99.634 -126.6755
13.936011 99.644 -127.1313
14.036998 99.656 -127.5808
14.138716 99.669 -128.0269
14.241171 99.685 -128.4745
14.344368 99.703 -128.9274
14.448313 99.723 -129.3879
14.553011 99.745 -129.8604
14.658468 99.768 -130.3488
14.764689 99.792 -130.8561
14.871680 99.817 -131.3827
14.979446 99.841 -131.9284
15.087994 99.862 -132.4932
15.197328 99.882 -133.0747
15.307454 99.899 -133.6672
15.418378 99.913 -134.2649
15.530106 99.922 -134.8630
15.642643 99.927 -135.4541
15.755996 99.929 -136.0286
15.870171 99.927 -136.5801
15.985172 99.923 -137.1037
16.101007 99.917 -137.5931
16.217682 99.911 -138.0441
16.335201 99.906 -138.4567
16.453573 99.903 -138.8336
16.572803 99.904 -139.1772
16.692898 99.909 -139.4933
16.813862 99.919 -139.7916
16.935701 99.934 -140.0814
17.058424 99.955 -140.3699
17.182035 99.980 -140.6670
17.306543 100.009 -140.9812
17.431953 100.040 -141.3157
17.558273 100.071 -141.6721
17.685509 100.102 -142.0510
17.813665 100.130 -142.4477
17.942751 100.154 -142.8539
18.072771 100.174 -143.2617
18.203733 100.190 -143.6616
18.335646 100.201 -144.0411
18.468513 100.208 -144.3915
18.602345 100.213 -144.7058
18.737144 100.217 -144.9780
18.872921 100.221 -145.2072
19.009682 100.229 -145.3981
19.147434 100.241 -145.5576
19.286184 100.259 -145.6967
19.425940 100.283 -145.8323
19.566708 100.315 -145.9799
19.708496 100.352 -146.1564
19.851313 100.394 -146.3799
19.995163 100.438 -146.6614
20.140057 100.482 -147.0093
20.285999 100.521 -147.4276
20.433001 100.554 -147.9115
20.581066 100.576 -148.4501
20.730206 100.586 -149.0285
20.880424 100.582 -149.6216
21.031733 100.561 -150.2035
21.184137 100.527 -150.7448
21.337646 100.480 -151.2129
21.492268 100.423 -151.5851
21.648010 100.364 -151.8412
21.804880 100.308 -151.9742
21.962887 100.262 -151.9961
22.122040 100.234 -151.9318
22.282345 100.230 -151.8284
22.443811 100.253 -151.7488
22.606449 100.303 -151.7544
22.770266 100.373 -151.9158
22.935268 100.458 -152.2825
23.101467 100.544 -152.8868
23.268869 100.621 -153.7372
23.437485 100.676 -154.8055
23.607323 100.697 -156.0416
23.778391 100.679 -157.3642
23.950699 100.614 -158.6715
24.124256 100.506 -159.8536
24.299070 100.358 -160.7888
24.475151 100.183 -161.3810
24.652508 100.001 -161.5521
24.831150 99.836 -161.2877
25.011087 99.716 -160.6357
25.192327 99.663 -159.7109
25.374882 99.692 -158.7012
25.558758 99.804 -157.7917
25.743967 99.982 -157.1758
25.930519 100.202 -156.9702
26.118422 100.435 -157.2289
26.307686 100.656 -157.9310
26.498322 100.843 -158.9916
26.690340 100.985 -160.3004
26.883749 101.075 -161.7219
27.078560 101.116 -163.1376
27.274782 101.113 -164.4407
27.472427 101.077 -165.5622
27.671503 101.020 -166.4637
27.872023 100.951 -167.1454
28.073996 100.882 -167.6307
28.277431 100.817 -167.9626
28.482342 100.759 -168.1814
28.688736 100.707 -168.3209
28.896626 100.659 -168.3981
29.106022 100.615 -168.4185
29.316936 100.574 -168.3837
29.529379 100.539 -168.2997
29.743361 100.512 -168.1865
29.958893 100.493 -168.0739
30.175987 100.482 -167.9996
30.394655 100.473 -167.9904
30.614908 100.461 -168.0569
30.836756 100.439 -168.1805
31.060211 100.404 -168.3237
31.285286 100.357 -168.4338
31.511992 100.303 -168.4711
31.740341 100.253 -168.4196
31.970345 100.217 -168.3051
32.202015 100.203 -168.1864
32.435364 100.213 -168.1478
32.670403 100.242 -168.2654
32.907146 100.280 -168.5866
33.145607 100.313 -169.1152
33.385796 100.333 -169.8118
33.627724 100.334 -170.6111
33.871403 100.317 -171.4388
34.116848 100.286 -172.2427
34.364071 100.249 -172.9991
34.613087 100.213 -173.7177
34.863907 100.181 -174.4243
35.116547 100.150 -175.1417
35.371017 100.116 -175.8713
35.627331 100.072 -176.5820
35.885502 100.017 -177.2203
36.145542 99.953 -177.7240
36.407467 99.890 -178.0499
36.671291 99.836 -178.1917
36.937027 99.803 -178.1838
37.204689 99.796 -178.0953
37.474289 99.815 -178.0016
37.745842 99.852 -177.9634
38.019363 99.898 -178.0143
38.294868 99.945 -178.1569
38.572369 99.985 -178.3743
38.851879 100.014 -178.6435
39.133415 100.030 -178.9427
39.416992 100.032 -179.2545
39.702625 100.020 -179.5622
39.990326 99.992 -179.8455
40.280113 99.950 179.9187
40.571999 99.897 179.7524
40.866001 99.840 179.6658
41.162132 99.783 179.6506
41.460411 99.733 179.6804
41.760849 99.694 179.7172
42.063465 99.665 179.7219
42.368275 99.644 179.6660
42.675293 99.628 179.5372
42.984535 99.616 179.3364
43.296021 99.604 179.0710
43.609760 99.593 178.7490
43.925774 99.583 178.3765
44.244080 99.572 177.9587
44.564690 99.559 177.5055
44.887623 99.542 177.0351
45.212898 99.520 176.5732
45.540531 99.493 176.1482
45.870537 99.465 175.7825
46.202934 99.438 175.4854
46.537739 99.416 175.2496
46.874969 99.400 175.0562
47.214645 99.389 174.8840
47.556782 99.381 174.7189
47.901398 99.373 174.5585
48.248512 99.362 174.4072
48.598141 99.349 174.2699
48.950302 99.334 174.1459
49.305016 99.317 174.0291
49.662300 99.298 173.9122
50.022175 99.276 173.7902
50.384655 99.252 173.6614
50.749763 99.226 173.5241
51.117516 99.198 173.3746
51.487934 99.170 173.2083
51.861038 99.141 173.0234
52.236843 99.110 172.8223
52.615372 99.080 172.6100
52.996643 99.050 172.3901
53.380680 99.021 172.1622
53.767498 98.993 171.9245
54.157120 98.967 171.6779
54.549564 98.940 171.4288
54.944855 98.913 171.1871
55.343006 98.886 170.9610
55.744045 98.859 170.7542
56.147991 98.833 170.5654
56.554863 98.809 170.3908
56.964684 98.786 170.2259
57.377472 98.763 170.0657
57.793251 98.740 169.9057
58.212044 98.716 169.7446
58.633873 98.691 169.5842
59.058758 98.664 169.4290
59.486721 98.636 169.2815
59.917786 98.610 169.1382
60.351974 98.586 168.9895
60.789310 98.565 168.8231
61.229816 98.543 168.6311
61.673512 98.520 168.4164
62.120422 98.494 168.1920
62.570572 98.465 167.9722
63.023983 98.434 167.7629
63.480682 98.403 167.5596
63.940689 98.369 167.3611
64.404030 98.332 167.1818
64.870728 98.291 167.0469
65.340805 98.252 166.9667
65.814293 98.221 166.9161
66.291214 98.198 166.8467
66.771591 98.177 166.7274
67.255447 98.152 166.5715
67.742805 98.122 166.4207
68.233696 98.090 166.3000
68.728142 98.063 166.1935
69.226173 98.039 166.0675
69.727814 98.013 165.9128
70.233093 97.984 165.7557
70.742035 97.951 165.6275
71.254662 97.920 165.5298
71.771004 97.891 165.4390
72.291084 97.862 165.3413
72.814934 97.831 165.2507
73.342583 97.799 165.1874
73.874054 97.770 165.1444
74.409378 97.746 165.0875
74.948578 97.722 164.9903
75.491684 97.695 164.8616
76.038727 97.662 164.7339
76.589737 97.627 164.6299
77.144737 97.593 164.5437
77.703758 97.563 164.4540
78.266830 97.534 164.3478
78.833984 97.502 164.2322
79.405251 97.468 164.1267
79.980652 97.432 164.0483
80.560226 97.398 163.9944
81.143997 97.368 163.9419
81.732002 97.339 163.8655
82.324265 97.310 163.7589
82.920822 97.277 163.6337
83.521698 97.241 163.5049
84.126930 97.204 163.3800
84.736549 97.168 163.2558
85.350586 97.134 163.1176
85.969070 97.100 162.9542
86.592041 97.061 162.7850
87.219521 97.018 162.6538
87.851547 96.977 162.5821
88.488159 96.942 162.5428
89.129379 96.913 162.4985
89.775246 96.883 162.4449
90.425797 96.851 162.4012
91.081062 96.819 162.3741
91.741074 96.787 162.3536
92.405869 96.754 162.3303
93.075478 96.721 162.3014
93.749939 96.686 162.2653
94.429291 96.650 162.2218
95.113564 96.611 162.1771
95.802795 96.572 162.1399
96.497025 96.532 162.1080
97.196281 96.493 162.0674
97.900604 96.452 162.0173
98.610031 96.406 161.9832
99.324600 96.361 161.9824
100.044350 96.322 161.9886
100.769310 96.286 161.9640
101.499527 96.248 161.9115
102.235031 96.207 161.8627
102.975868 96.165 161.8281
103.722076 96.125 161.7930
104.473686 96.084 161.7454
105.230743 96.039 161.6866
105.993286 95.989 161.6271
106.761360 95.932 161.5839
107.534996 95.872 161.5667
108.314240 95.810 161.5687
109.099129 95.749 161.5803
109.889709 95.687 161.6000
110.686012 95.626 161.6274
111.488091 95.565 161.6659
112.295982 95.502 161.7255
113.109726 95.437 161.8084
113.929367 95.366 161.9171
114.754944 95.285 162.0688
115.586502 95.195 162.2737
116.424088 95.093 162.5302
117.267746 94.978 162.8582
118.117516 94.854 163.2864
118.973442 94.724 163.8314
119.835571 94.596 164.5228
120.703949 94.475 165.4070
121.578621 94.376 166.5223
122.459633 94.312 167.8922
123.347023 94.303 169.4835
124.240845 94.362 171.1790
125.141144 94.487 172.8383
126.047966 94.672 174.3401
126.961365 94.907 175.5559
127.881378 95.174 176.3519
128.808060 95.450 176.6377
129.741455 95.712 176.4090
130.681610 95.939 175.7379
131.628586 96.122 174.7378
132.582428 96.255 173.5499
133.543182 96.337 172.3230
134.510895 96.376 171.1719
135.485611 96.383 170.1591
136.467392 96.366 169.2988
137.456284 96.331 168.5740
138.452347 96.285 167.9628
139.455627 96.232 167.4462
140.466187 96.176 167.0046
141.484070 96.119 166.6240
142.509323 96.064 166.3002
143.542007 96.011 166.0344
144.582169 95.960 165.8200
145.629868 95.912 165.6426
146.685165 95.864 165.4918
147.748108 95.816 165.3633
148.818756 95.767 165.2555
149.897156 95.720 165.1656
150.983368 95.675 165.0879
152.077454 95.632 165.0189
153.179474 95.591 164.9596
154.289474 95.551 164.9135
155.407516 95.512 164.8820
156.533661 95.474 164.8605
157.667969 95.437 164.8452
158.810501 95.401 164.8356
159.961304 95.365 164.8317
161.120453 95.330 164.8347
162.287994 95.295 164.8473
163.464005 95.260 164.8674
164.648529 95.225 164.8908
165.841644 95.192 164.9166
167.043396 95.158 164.9457
168.253860 95.126 164.9787
169.473099 95.094 165.0160
170.701172 95.064 165.0579
171.938141 95.034 165.1033
173.184082 95.005 165.1503
174.439041 94.975 165.1989
175.703094 94.945 165.2512
176.976318 94.915 165.3074
178.258759 94.886 165.3660
179.550491 94.858 165.4250
180.851593 94.830 165.4843
182.162125 94.804 165.5435
183.482147 94.777 165.6024
184.811737 94.751 165.6627
186.150955 94.725 165.7276
187.499878 94.698 165.7979
188.858582 94.672 165.8712
190.227127 94.646 165.9450
191.605591 94.620 166.0194
192.994049 94.595 166.0956
194.392563 94.569 166.1741
195.801208 94.545 166.2544
197.220062 94.521 166.3348
198.649200 94.497 166.4139
200.088699 94.474 166.4933
201.538620 94.449 166.5759
202.999054 94.425 166.6613
204.470062 94.402 166.7476
205.951736 94.378 166.8347
207.444153 94.355 166.9232
208.947372 94.332 167.0137
210.461487 94.309 167.1069
211.986572 94.287 167.2028
213.522720 94.264 167.3011
215.069992 94.242 167.4014
216.628479 94.220 167.5027
218.198257 94.198 167.6044
219.779419 94.176 167.7073
221.372025 94.154 167.8115
222.976181 94.134 167.9155
224.591965 94.113 168.0182
226.219452 94.093 168.1199
227.858734 94.073 168.2213
229.509888 94.053 168.3235
231.173004 94.032 168.4280
232.848175 94.012 168.5351
234.535492 93.991 168.6445
236.235031 93.971 168.7552
237.946884 93.950 168.8677
239.671143 93.931 168.9823
241.407898 93.911 169.0989
243.157242 93.891 169.2169
244.919266 93.871 169.3346
246.694046 93.852 169.4518
248.481689 93.832 169.5696
250.282288 93.812 169.6899
252.095932 93.793 169.8134
253.922729 93.773 169.9400
255.762756 93.753 170.0707
257.616119 93.733 170.2062
259.482910 93.714 170.3455
261.363220 93.694 170.4882
263.257172 93.675 170.6362
265.164856 93.655 170.7926
267.086365 93.635 170.9600
269.021790 93.617 171.1392
270.971222 93.600 171.3294
272.934784 93.585 171.5282
274.912567 93.575 171.7305
276.904694 93.568 171.9277
278.911255 93.565 172.1097
280.932373 93.564 172.2676
282.968140 93.563 172.3973
285.018646 93.561 172.5011
287.084015 93.556 172.5871
289.164337 93.548 172.6655
291.259735 93.536 172.7451
293.370331 93.523 172.8322
295.496216 93.509 172.9282
297.637512 93.495 173.0318
299.794312 93.481 173.1417
301.966736 93.466 173.2575
304.154907 93.452 173.3784
306.358948 93.437 173.5036
308.578949 93.422 173.6326
310.815033 93.408 173.7650
313.067322 93.394 173.9006
315.335938 93.380 174.0388
317.621002 93.366 174.1788
319.922607 93.353 174.3197
322.240906 93.340 174.4620
324.575989 93.327 174.6071
326.928009 93.314 174.7566
329.297058 93.301 174.9108
331.683289 93.289 175.0685
334.086792 93.278 175.2277
336.507721 93.267 175.3868
338.946198 93.258 175.5452
341.402344 93.248 175.7032
343.876282 93.240 175.8600
346.368164 93.232 176.0151
348.878082 93.223 176.1675
351.406189 93.215 176.3154
353.952637 93.207 176.4575
356.517517 93.199 176.5954
359.100983 93.190 176.7316
361.703186 93.180 176.8681
364.324249 93.170 177.0066
366.964294 93.160 177.1480
369.623474 93.150 177.2925
372.301910 93.140 177.4395
374.999756 93.131 177.5895
377.717163 93.122 177.7434
380.454254 93.112 177.9011
383.211182 93.103 178.0610
385.988098 93.094 178.2217
388.785126 93.085 178.3837
391.602417 93.076 178.5469
394.440125 93.068 178.7112
397.298401 93.061 178.8765
400.177399 93.053 179.0419
403.077240 93.046 179.2071
405.998108 93.038 179.3718
408.940125 93.030 179.5366
411.903473 93.023 179.7031
414.888306 93.016 179.8718
417.894745 93.009 -179.9581
420.922974 93.002 -179.7872
423.973145 92.995 -179.6154
427.045441 92.988 -179.4424
430.139984 92.981 -179.2687
433.256958 92.975 -179.0943
436.396515 92.969 -178.9188
439.558838 92.963 -178.7415
442.744049 92.957 -178.5629
445.952362 92.951 -178.3837
449.183929 92.946 -178.2042
452.438904 92.940 -178.0251
455.717468 92.935 -177.8459
459.019775 92.930 -177.6654
462.346008 92.925 -177.4827
465.696350 92.921 -177.2990
469.070984 92.917 -177.1151
472.470062 92.913 -176.9302
475.893768 92.909 -176.7440
479.342285 92.906 -176.5565
482.815796 92.902 -176.3679
486.314484 92.898 -176.1790
489.838531 92.895 -175.9903
493.388092 92.892 -175.8016
496.963379 92.889 -175.6114
500.564575 92.886 -175.4183
504.191864 92.883 -175.2220
507.845459 92.881 -175.0234
511.525513 92.878 -174.8234
515.232239 92.876 -174.6224
518.965820 92.874 -174.4217
522.726440 92.873 -174.2218
526.514343 92.872 -174.0223
530.329712 92.871 -173.8212
534.172729 92.870 -173.6174
538.043579 92.869 -173.4108
541.942444 92.869 -173.2020
545.869568 92.869 -172.9915
549.825134 92.869 -172.7804
553.809387 92.869 -172.5690
557.822510 92.869 -172.3564
561.864746 92.869 -172.1430
565.936279 92.870 -171.9298
570.037292 92.871 -171.7164
574.168030 92.873 -171.5008
578.328674 92.875 -171.2818
582.519470 92.878 -171.0598
586.740662 92.880 -170.8355
590.992432 92.883 -170.6104
595.275024 92.886 -170.3857
599.588623 92.889 -170.1614
603.933472 92.892 -169.9361
608.309814 92.896 -169.7080
612.717896 92.899 -169.4772
617.157898 92.903 -169.2452
621.630066 92.907 -169.0135
626.134644 92.912 -168.7821
630.671875 92.917 -168.5486
635.242004 92.923 -168.3113
639.845215 92.929 -168.0711
644.481812 92.936 -167.8303
649.151978 92.943 -167.5892
653.856018 92.950 -167.3468
658.594116 92.958 -167.1019
663.366577 92.966 -166.8544
668.173584 92.975 -166.6057
673.015442 92.984 -166.3571
677.892395 92.994 -166.1077
682.804688 93.004 -165.8561
687.752563 93.014 -165.6019
692.736328 93.025 -165.3454
697.756165 93.036 -165.0877
702.812378 93.047 -164.8295
707.905273 93.059 -164.5709
713.035034 93.072 -164.3120
718.201965 93.085 -164.0527
723.406372 93.100 -163.7923
728.648499 93.115 -163.5300
733.928589 93.130 -163.2659
739.246948 93.146 -163.0002
744.603821 93.162 -162.7329
749.999512 93.179 -162.4648
755.434326 93.197 -162.1972
760.908508 93.215 -161.9308
766.422363 93.234 -161.6650
771.976196 93.253 -161.3975
777.570251 93.273 -161.1276
783.204834 93.294 -160.8564
788.880249 93.316 -160.5849
794.596802 93.339 -160.3140
800.354797 93.362 -160.0430
806.154480 93.386 -159.7715
811.996216 93.411 -159.4998
817.880249 93.436 -159.2287
823.806946 93.463 -158.9588
829.776611 93.491 -158.6910
835.789490 93.519 -158.4247
841.845947 93.549 -158.1592
847.946289 93.579 -157.8948
854.090881 93.609 -157.6325
860.279968 93.641 -157.3729
866.513916 93.673 -157.1160
872.793030 93.706 -156.8615
879.117676 93.739 -156.6094
885.488098 93.774 -156.3605
891.904724 93.809 -156.1151
898.367859 93.845 -155.8721
904.877808 93.881 -155.6314
911.434937 93.919 -155.3928
918.039551 93.956 -155.1550
924.692017 93.995 -154.9164
931.392700 94.036 -154.6783
938.141968 94.079 -154.4474
944.940125 94.124 -154.2313
951.787537 94.169 -154.0333
958.684570 94.215 -153.8541
965.631592 94.260 -153.6937
972.628967 94.304 -153.5530
979.677063 94.344 -153.4324
986.776184 94.379 -153.3260
993.926758 94.407 -153.2158
1001.129150 94.427 -153.0663
1008.383728 94.444 -152.8386
1015.690918 94.468 -152.5236
1023.051025 94.505 -152.1608
1030.464478 94.556 -151.8114
1037.931641 94.616 -151.5153
1045.452881 94.678 -151.2781
1053.028687 94.739 -151.0865
1060.659424 94.798 -150.9252
1068.345459 94.855 -150.7820
1076.087158 94.911 -150.6500
1083.884888 94.965 -150.5256
1091.739136 95.018 -150.4067
1099.650269 95.071 -150.2923
1107.618774 95.123 -150.1831
1115.645020 95.175 -150.0786
1123.729492 95.227 -149.9786
1131.872559 95.278 -149.8835
1140.074585 95.329 -149.7928
1148.336060 95.379 -149.7061
1156.657349 95.430 -149.6229
1165.038940 95.480 -149.5431
1173.481323 95.530 -149.4665
1181.984863 95.579 -149.3931
1190.550049 95.628 -149.3224
1199.177246 95.677 -149.2537
1207.866943 95.726 -149.1860
1216.619629 95.774 -149.1201
1225.435791 95.822 -149.0568
1234.315796 95.871 -148.9971
1243.260132 95.919 -148.9404
1252.269287 95.967 -148.8849
1261.343750 96.014 -148.8292
1270.484009 96.062 -148.7738
1279.690430 96.109 -148.7202
1288.963623 96.157 -148.6683
1298.303955 96.204 -148.6171
1307.712036 96.251 -148.5659
1317.188232 96.298 -148.5142
1326.733154 96.346 -148.4624
1336.347168 96.393 -148.4117
1346.030884 96.440 -148.3616
1355.784790 96.487 -148.3107
1365.609375 96.535 -148.2585
1375.505127 96.584 -148.2053
1385.472656 96.632 -148.1514
1395.512329 96.681 -148.0970
1405.624756 96.731 -148.0432
1415.810547 96.781 -147.9904
1426.070068 96.832 -147.9382
1436.403931 96.884 -147.8864
1446.812744 96.936 -147.8357
1457.296997 96.990 -147.7880
1467.857178 97.044 -147.7445
1478.493896 97.099 -147.7067
1489.207642 97.154 -147.6750
1499.999023 97.211 -147.6490
1510.868652 97.268 -147.6279
1521.817017 97.326 -147.6125
1532.844727 97.384 -147.6049
1543.952393 97.442 -147.6062
1555.140503 97.500 -147.6166
1566.409668 97.558 -147.6346
1577.760498 97.615 -147.6587
1589.193604 97.672 -147.6873
1600.709595 97.730 -147.7202
1612.308960 97.786 -147.7576
1623.992432 97.843 -147.7993
1635.760498 97.899 -147.8438
1647.613892 97.956 -147.8901
1659.553223 98.012 -147.9371
1671.578979 98.067 -147.9839
1683.691895 98.123 -148.0311
1695.892578 98.179 -148.0803
1708.181763 98.234 -148.1316
1720.559937 98.290 -148.1841
1733.027832 98.346 -148.2374
1745.586060 98.403 -148.2924
1758.235352 98.460 -148.3491
1770.976196 98.518 -148.4070
1783.809448 98.576 -148.4662
1796.735718 98.635 -148.5270
1809.755615 98.694 -148.5892
1822.869873 98.754 -148.6536
1836.079102 98.815 -148.7217
1849.384033 98.876 -148.7946
1862.785400 98.939 -148.8730
1876.283936 99.003 -148.9587
1889.880249 99.067 -149.0530
1903.575073 99.133 -149.1559
1917.369141 99.198 -149.2669
1931.263184 99.263 -149.3859
1945.257935 99.329 -149.5118
1959.354126 99.395 -149.6440
1973.552368 99.461 -149.7825
1987.853516 99.528 -149.9272
2002.258301 99.594 -150.0790
2016.767456 99.661 -150.2380
2031.381836 99.729 -150.4040
2046.102051 99.796 -150.5765
2060.928955 99.865 -150.7560
2075.863281 99.933 -150.9437
2090.905762 100.003 -151.1398
2106.057373 100.073 -151.3448
2121.318848 100.143 -151.5594
2136.690918 100.214 -151.7854
2152.174316 100.285 -152.0236
2167.769775 100.356 -152.2742
2183.478271 100.428 -152.5377
2199.300537 100.499 -152.8144
2215.237549 100.569 -153.1035
2231.290039 100.640 -153.4038
2247.458984 100.710 -153.7153
2263.745117 100.780 -154.0378
2280.149170 100.849 -154.3713
2296.672119 100.918 -154.7162
2313.314697 100.987 -155.0729
2330.077881 101.055 -155.4420
2346.962646 101.123 -155.8234
2363.969727 101.190 -156.2170
2381.100098 101.256 -156.6232
2398.354492 101.321 -157.0423
2415.733887 101.386 -157.4738
2433.239258 101.450 -157.9177
2450.871582 101.512 -158.3746
2468.631592 101.574 -158.8440
2486.520264 101.634 -159.3254
2504.538574 101.693 -159.8185
2522.687500 101.751 -160.3238
2540.968018 101.807 -160.8413
2559.380859 101.861 -161.3705
2577.927246 101.914 -161.9106
2596.607910 101.966 -162.4608
2615.424072 102.016 -163.0206
2634.376465 102.064 -163.5896
2653.466309 102.110 -164.1682
2672.694336 102.155 -164.7562
2692.061768 102.198 -165.3530
2711.569580 102.239 -165.9587
2731.218750 102.278 -166.5742
2751.010254 102.315 -167.1993
2770.945312 102.350 -167.8339
2791.024658 102.382 -168.4766
2811.249512 102.412 -169.1265
2831.621094 102.440 -169.7829
2852.140137 102.465 -170.4456
2872.807861 102.487 -171.1146
2893.625488 102.507 -171.7886
2914.593994 102.524 -172.4661
2935.714355 102.538 -173.1457
2956.987793 102.549 -173.8257
2978.415283 102.557 -174.5046
2999.998047 102.562 -175.1808
3021.737305 102.564 -175.8525
3043.634033 102.564 -176.5175
3065.689453 102.561 -177.1736
3087.904785 102.556 -177.8190
3110.281006 102.549 -178.4536
3132.819336 102.542 -179.0778
3155.520996 102.534 -179.6927
3178.387207 102.525 179.6999
3201.419189 102.517 179.0977
3224.617920 102.509 178.4973
3247.984863 102.502 177.8950
3271.520996 102.494 177.2858
3295.227783 102.487 176.6653
3319.106445 102.479 176.0297
3343.157959 102.470 175.3769
3367.383789 102.458 174.7061
3391.785156 102.444 174.0187
3416.363525 102.425 173.3182
3441.119873 102.402 172.6094
3466.055664 102.374 171.8981
3491.172119 102.341 171.1896
3516.470703 102.304 170.4893
3541.952393 102.262 169.8015
3567.618896 102.216 169.1299
3593.471436 102.166 168.4771
3619.511230 102.113 167.8450
3645.739746 102.058 167.2349
3672.158203 102.001 166.6478
3698.768066 101.943 166.0844
3725.570801 101.884 165.5437
3752.567871 101.825 165.0234
3779.760498 101.766 164.5198
3807.150146 101.708 164.0289
3834.738281 101.650 163.5469
3862.526367 101.593 163.0709
3890.515869 101.536 162.5983
3918.708252 101.479 162.1270
3947.104736 101.422 161.6565
3975.707031 101.363 161.1879
4004.516602 101.304 160.7227
4033.534912 101.243 160.2615
4062.763672 101.181 159.8049
4092.204102 101.118 159.3539
4121.857910 101.053 158.9091
4151.726562 100.988 158.4711
4181.811523 100.922 158.0403
4212.114746 100.855 157.6161
4242.637695 100.787 157.1983
4273.381836 100.718 156.7859
4304.348633 100.648 156.3792
4335.539551 100.576 155.9778
4366.956543 100.504 155.5824
4398.601074 100.430 155.1938
4430.475098 100.355 154.8135
4462.580078 100.279 154.4420
4494.917969 100.201 154.0790
4527.490234 100.123 153.7234
4560.298340 100.043 153.3752
4593.344238 99.962 153.0349
4626.629395 99.881 152.7029
4660.155762 99.799 152.3799
4693.925293 99.716 152.0665
4727.939453 99.632 151.7619
4762.200195 99.547 151.4651
4796.708984 99.460 151.1761
4831.467773 99.373 150.8958
4866.478516 99.285 150.6245
4901.743164 99.195 150.3621
4937.263184 99.104 150.1091
4973.040527 99.012 149.8671
5009.077148 98.918 149.6373
5045.375000 98.824 149.4200
5081.936035 98.728 149.2156
5118.761719 98.631 149.0248
5155.854492 98.533 148.8480
5193.215820 98.434 148.6870
5230.848145 98.334 148.5425
5268.752930 98.233 148.4149
5306.932617 98.131 148.3049
5345.388672 98.029 148.2145
5384.123535 97.926 148.1447
5423.139160 97.824 148.0952
5462.437500 97.721 148.0654
5502.020508 97.619 148.0558
5541.890625 97.517 148.0671
5582.049316 97.416 148.0993
5622.499023 97.316 148.1512
5663.242188 97.218 148.2215
5704.280273 97.122 148.3079
5745.615723 97.028 148.4069
5787.250977 96.937 148.5141
5829.187988 96.847 148.6251
5871.428711 96.758 148.7361
5913.975586 96.669 148.8467
5956.830566 96.580 148.9606
5999.996094 96.489 149.0831
6043.474609 96.397 149.2208
6087.268066 96.304 149.3811
6131.378906 96.210 149.5700
6175.809570 96.118 149.7890
6220.562012 96.027 150.0367
6265.638672 95.939 150.3094
6311.041992 95.854 150.6043
6356.774414 95.772 150.9197
6402.838379 95.693 151.2541
6449.235840 95.617 151.6059
6495.969727 95.544 151.9735
6543.041992 95.476 152.3553
6590.455566 95.410 152.7504
6638.212891 95.349 153.1588
6686.315918 95.292 153.5795
6734.767578 95.238 154.0118
6783.570312 95.189 154.4561
6832.727051 95.145 154.9126
6882.239746 95.106 155.3813
6932.111328 95.072 155.8625
6982.344238 95.045 156.3564
7032.941406 95.024 156.8616
7083.904785 95.011 157.3738
7135.237793 95.008 157.8855
7186.942871 95.015 158.3876
7239.022461 95.032 158.8708
7291.479492 95.058 159.3275
7344.316406 95.093 159.7521
7397.536133 95.137 160.1397
7451.141602 95.191 160.4848
7505.135742 95.253 160.7814
7559.520996 95.325 161.0222
7614.300293 95.407 161.1979
7669.476562 95.498 161.2988
7725.052734 95.598 161.3138
7781.031738 95.706 161.2300
7837.416504 95.822 161.0341
7894.209473 95.944 160.7122
7951.414062 96.071 160.2511
8009.033203 96.201 159.6375
8067.069824 96.332 158.8564
8125.527344 96.460 157.8913
8184.408203 96.583 156.7270
8243.715820 96.695 155.3519
8303.453125 96.791 153.7577
8363.623047 96.865 151.9413
8424.229492 96.912 149.9088
8485.275391 96.923 147.6758
8546.763672 96.892 145.2701
8608.697266 96.813 142.7325
8671.079102 96.679 140.1159
8733.913086 96.487 137.4838
8797.202148 96.234 134.9085
8860.950195 95.919 132.4692
8925.160156 95.544 130.2490
8989.835938 95.113 128.3298
9054.980469 94.631 126.7876
9120.596680 94.107 125.6889
9186.688477 93.551 125.0891
9253.258789 92.977 125.0321
9320.311523 92.398 125.5463
9387.850586 91.834 126.6394
9455.878906 91.303 128.2926
9524.400391 90.830 130.4534
9593.417969 90.438 133.0272
9662.935547 90.148 135.8675
9732.957031 89.976 138.7801
9803.486328 89.924 141.5444
9874.526367 89.980 143.9365
9946.081055 90.117 145.7613
10018.154297 90.298 146.8887
10090.750000 90.484 147.2777
10163.872070 90.639 146.9800
10237.523438 90.734 146.1278
10311.708984 90.754 144.9062
10386.431641 90.692 143.5140
10461.696289 90.552 142.1286
10537.505859 90.344 140.8884
10613.865234 90.079 139.8885
10690.777344 89.772 139.1807
10768.247070 89.438 138.7838
10846.278320 89.088 138.6946
10924.875000 88.732 138.8936
11004.041016 88.377 139.3502
11083.781250 88.029 140.0290
11164.098633 87.692 140.8977
11244.998047 87.369 141.9305
11326.484375 87.061 143.1082
11408.560547 86.768 144.4129
11491.231445 86.492 145.8250
11574.501953 86.232 147.3280
11658.375977 85.990 148.9102
11742.857422 85.765 150.5599
11827.951172 85.556 152.2664
11913.661133 85.364 154.0245
11999.992188 85.187 155.8309
12086.949219 85.027 157.6780
12174.536133 84.883 159.5596
12262.757812 84.757 161.4738
12351.619141 84.649 163.4163
12441.124023 84.561 165.3749
12531.277344 84.494 167.3398
12622.083984 84.448 169.3036
12713.548828 84.425 171.2500
12805.676758 84.425 173.1569
12898.471680 84.449 175.0035
12991.939453 84.493 176.7725
13086.083984 84.557 178.4494
13180.911133 84.639 -179.9807
13276.425781 84.739 -178.5325
13372.631836 84.855 -177.2195
13469.535156 84.984 -176.0565
13567.140625 85.123 -175.0614
13665.454102 85.270 -174.2501
13764.479492 85.421 -173.6325
13864.222656 85.569 -173.2136
13964.688477 85.711 -172.9910
14065.882812 85.839 -172.9499
14167.809570 85.952 -173.0652
14270.475586 86.047 -173.3113
14373.885742 86.122 -173.6677
14478.044922 86.177 -174.1113
14582.958984 86.211 -174.6201
14688.632812 86.225 -175.1784
14795.072266 86.218 -175.7726
14902.283203 86.185 -176.3733
15010.271484 86.127 -176.9294
15119.041992 86.050 -177.3925
15228.600586 85.960 -177.7336
15338.953125 85.865 -177.9421
15450.105469 85.774 -178.0240
15562.063477 85.695 -178.0043
15674.833008 85.635 -177.9268
15788.418945 85.600 -177.8502
15902.828125 85.592 -177.8445
16018.066406 85.611 -177.9853
16134.139648 85.653 -178.3531
16251.054688 85.710 -179.0261
16368.816406 85.768 179.9291
16487.431641 85.812 178.4694
16606.906250 85.823 176.5901
16727.246094 85.781 174.3329
16848.458984 85.670 171.7856
16970.550781 85.480 169.0782
17093.527344 85.205 166.3636
17217.394531 84.848 163.7800
17342.158203 84.418 161.4214
17467.826172 83.924 159.3358
17594.404297 83.373 157.5508
17721.900391 82.763 156.1351
17850.320312 82.091 155.2560
17979.671875 81.380 155.0875
18109.960938 80.683 155.5397
18241.193359 80.039 156.2433
18373.376953 79.433 156.9103
18506.517578 78.819 157.5458
18640.623047 78.159 158.4017
18775.701172 77.444 159.8209
18911.757812 76.709 161.9928
19048.800781 76.016 164.7769
19186.835938 75.404 167.8406
19325.871094 74.865 170.9407
19465.914062 74.369 174.0295
19606.972656 73.894 177.1816
19749.052734 73.432 -179.5084
19892.162109 72.986 -175.9854
20036.308594 72.566 -172.2413
20181.500000 72.184 -168.2820
20327.744141 71.849 -164.1177
20475.046875 71.571 -159.7936
20623.417969 71.361 -155.3671
20772.863281 71.229 -150.8885
20923.392578 71.182 -146.4475
21075.011719 71.222 -142.2051
21227.730469 71.343 -138.3667
21381.554688 71.526 -135.1299
21536.494141 71.735 -132.6355
21692.556641 71.922 -130.9141
21849.750000 72.045 -129.8433
22008.082031 72.076 -129.1668
22167.562500 72.010 -128.5884
22328.197266 71.858 -127.8453
22489.996094 71.642 -126.7385
22652.968750 71.389 -125.1793
22817.121094 71.130 -123.1825
22982.462891 70.887 -120.8212
23149.003906 70.671 -118.1953
23316.751953 70.486 -115.4049
23485.714844 70.336 -112.5599
23655.902344 70.226 -109.8619
23827.322266 70.158 -107.6583
23999.984375 70.129 -106.3993
